Time (s),Current (A)
0,2.336
0,1.11
0,1.331
0,1.136
0,1.518
0,1.143
0,2.385
0,2.623
1,3.335
1,1.238
1,2.621
1,1.715
1,1.38
1,2.767
1,2.227
1,1.79
1,1.307
1,3.005
1,0.882
1,1.552
2,0.613
2,3.149
2,0.102
2,2.816
2,3.024
2,1.606
2,3.09
2,1.897
2,2.855
2,1.372
2,0.52
2,2.547
3,1.157
3,2.228
3,1.712
3,2.913
3,0.484
3,2.542
3,2.546
3,1.02
3,1.082
3,2.041
3,1.918
3,2.104
3,2.287
4,0.404
4,3.259
4,0.479
4,3.476
4,0.563
4,2.751
4,1.333
4,1.575
4,2.105
4,2.657
4,0.957
4,2.881
5,2.026
5,3.522
5,0.12
5,1.455
5,1.508
5,0.975
5,2.101
5,0.474
5,0.961
5,0.434
5,3.481
5,0.272
6,3.317
6,1.965
6,0.687
6,1.844
6,1.76
6,0.596
6,2.381
7,2.887
7,2.32
7,0.355
7,1.249
7,1.307
7,2.298
7,2.013
7,1.978
7,2.354
7,0.274
7,2.741
7,2.79
7,0.629
8,1.389
8,1.032
8,1.094
8,1.738
8,2.582
8,1.21
8,1.534
9,3.426
9,1.958
9,1.297
9,0.931
9,1.731
9,0.965
9,1.326
10,1.261
10,2.142
10,0.785
10,2.045
10,2.219
10,0.971
10,2.731
11,3.023
11,3.066
11,2.879
11,0.272
11,2.605
11,1.304
11,2.241
11,2.304
11,0.941
11,0.941
12,0.437
12,1.829
12,1.459
12,3.095
12,0.631
12,2.875
12,1.625
12,1.175
12,2.84
12,2.199
12,1.357
12,3.316
13,2.625
13,3.181
13,1.239
13,3.314
13,2.688
13,3.064
13,1.09
13,1.524
13,1.723
14,3.282
14,1.873
14,2.03
14,3.373
14,0.853
14,1.295
14,2.123
14,0.712
14,2.218
14,1.817
14,0.259
14,1.764
14,2.798
14,2.232
14,0.612
14,2.04
15,2.959
15,0.529
15,1.377
15,2.825
15,2.763
15,0.21
15,1.532
15,2.233
15,1.476
15,2.994
15,1.583
15,0.55
15,1.52
15,2.298
16,0.57
16,2.463
16,0.741
16,1.237
16,2.437
16,3.44
16,0.134
16,1.366
16,1.285
16,2.467
16,1.531
16,0.665
16,1.413
16,1.568
16,1.458
16,1.343
17,1.314
17,1.571
17,2.743
17,1.171
17,0.403
17,3.169
17,1.552
17,1.416
17,3.432
17,1.369
17,1.305
17,1.987
17,1.643
17,1.751
17,1.957
17,2.855
17,0.122
17,1.507
17,3.225
17,0.65
17,2.259
17,3.194
17,1.721
17,1.096
17,3.013
17,2.76
17,1.603
18,2.39
18,2.898
18,1.856
18,1.182
18,2.04
18,0.865
18,1.239
18,1.667
18,1.608
18,2.818
18,3.207
18,1.214
18,1.29
18,2.429
18,2.139
18,0.92
18,3.09
18,1.915
18,1.501
18,1.444
18,2.7
18,0.779
18,2.869
18,1.467
18,1.493
18,2.314
18,2.185
18,0.792
18,1.765
18,2.895
18,2.715
19,1.602
19,1.874
19,2.901
19,0.617
19,0.736
19,2.196
19,0.249
19,1.82
19,3.461
19,1.053
19,0.765
19,1.634
19,2.067
19,0.522
19,2.733
19,2.085
19,1.842
19,2.114
19,2.459
19,0.787
19,3.05
19,2.102
19,1.358
19,2.534
19,2.279
19,1.144
19,0.878
19,2.829
19,0.125
19,1.725
19,2.773
19,3.036
20,2.419
20,1.02
20,1.513
20,1.02
20,3.066
20,1.891
20,1.654
20,2.731
20,1.953
20,1.941
20,2.091
20,3.06
20,1.423
20,1.107
20,1.193
20,3.149
20,1.115
20,2.223
20,0.816
20,2.563
20,3.191
20,2.272
20,0.706
20,2.21
20,1.882
20,0.151
20,2.033
20,3.282
20,2.7
20,0.619
20,2.953
20,1.958
21,1.249
21,3.31
21,1.528
21,1.158
21,1.904
21,3.028
21,0.662
21,2.068
21,0.117
21,1.994
21,3.248
21,2.091
21,0.889
21,2.185
21,2.694
21,0.537
21,2.045
21,3.294
21,2.414
21,1.135
21,3.163
21,1.364
21,2.086
21,2.335
21,0.933
21,1.585
21,3.215
21,1.878
21,0.539
21,2.367
22,1.126
22,1.586
22,2.392
22,2.837
22,1.806
22,1.151
22,2.899
22,0.303
22,1.123
22,2.06
22,2.793
22,1.831
22,0.713
22,1.674
22,1.766
22,2.252
22,2.649
22,2.837
22,2.011
22,1.529
22,2.644
22,0.614
22,1.704
22,2.596
22,0.949
22,1.51
22,3.062
22,0.683
22,0.785
22,2.316
22,3.068
22,0.607
22,1.482
23,2.098
23,2.958
23,1.619
23,1.953
23,3.256
23,1.372
23,1.501
23,3.424
23,1.91
23,1.705
23,3.015
23,0.831
23,1.084
23,2.464
23,3.067
23,1.231
23,2.371
23,2.955
23,0.336
23,2.069
23,2.965
23,1.081
23,1.547
23,2.761
23,0.567
23,1.655
23,3.187
23,1.269
23,1.822
23,2.822
23,2.377
23,1.598
24,3.351
24,0.319
24,1.653
24,2.15
24,0.717
24,2.232
24,2.58
24,0.363
24,3.153
24,1.602
24,1.199
24,3.177
24,1.624
24,0.692
24,1.692
24,1.494
24,2.007
24,2.18
24,2.597
24,0.635
24,2.024
24,2.604
24,0.428
24,2.475
24,2.32
24,1.756
24,0.679
24,2.239
24,2.981
24,1.371
25,2.958
25,2.66
25,1.717
25,1.451
25,2.322
25,0.163
25,2.139
25,0.176
25,1.873
25,2.675
25,2.998
25,0.948
25,1.394
25,2.648
25,1.052
25,2.499
25,3.015
25,1.297
25,1.893
25,2.62
25,0.186
25,2.281
25,0.122
25,2.198
25,3.494
25,1.308
25,2.192
25,2.678
25,1.351
25,2.339
25,2.931
26,1.928
26,1.58
26,2.707
26,1.671
26,1.587
26,2.307
26,1.97
26,2.493
26,3.232
26,2.413
26,1.477
26,2.059
26,2.663
26,3.078
