Time (s),Current (A)
0,2.247
0,2.239
0,1.145
0,3.126
0,2.137
0,1.147
3,2.832
3,2.896
3,3.37
3,3.244
3,2.306
3,1.376
3,2.858
3,1.306
3,1.909
3,2.74
3,2.457
5,3.045
5,1.154
5,2.302
5,2.49
5,1.786
5,3.293
5,2.805
5,2.659
5,1.152
6,3.08
6,2.698
6,0.882
6,1.741
6,3.061
6,1.012
6,3.024
6,0.969
6,3.231
6,3.334
7,2.532
7,1.195
7,2.468
7,2.389
7,0.843
7,1.261
7,2.982
7,3.031
8,0.507
8,1.984
8,1.754
8,0.962
8,3.476
8,2.866
8,2.542
8,1.384
8,3.086
10,2.328
